Frank-Hertz Experiment		
		
Vr(V)= 0.5		
Cathode Heater Current (mA) = 0		
		 
Va(V)_1	Ia(E-12 A)_1	T(c)_1
0.00	0.11	172.66
0.10	0.05	172.69
0.20	0.06	172.69
0.30	0.07	172.70
0.40	0.02	172.70
0.50	0.05	172.72
0.60	0.05	172.72
0.70	0.13	172.73
0.80	0.08	172.73
0.90	0.05	172.73
1.00	0.12	172.75
1.10	0.29	172.75
1.20	0.23	172.77
1.30	0.55	172.77
1.40	1.04	172.77
1.50	1.53	172.77
1.60	2.11	172.80
1.70	2.84	172.80
1.80	3.48	172.81
1.90	4.33	172.81
2.00	5.01	172.82
2.10	5.73	172.82
2.20	6.83	172.84
2.30	7.72	172.84
2.40	9.16	172.86
2.50	10.34	172.86
2.60	12.10	172.87
2.70	13.88	172.87
2.80	16.49	172.89
2.90	19.22	172.89
3.00	22.02	172.90
3.10	25.71	172.90
3.20	29.21	172.91
3.30	34.13	172.91
3.40	38.81	172.93
3.50	44.67	172.93
3.60	50.34	172.94
3.70	57.60	172.94
3.80	65.38	172.96
3.90	74.53	172.96
4.00	83.10	172.97
4.10	93.96	172.97
4.20	104.05	172.99
4.30	117.32	172.99
4.40	131.54	173.01
4.50	144.53	173.01
4.60	161.83	173.02
4.70	177.70	173.02
4.80	199.39	173.03
4.90	218.13	173.03
5.00	242.56	173.05
5.10	268.91	173.05
5.20	292.71	173.05
5.30	323.62	173.05
5.40	349.62	173.07
5.50	382.19	173.07
5.60	407.05	173.09
5.70	428.80	173.09
5.80	435.87	173.10
5.90	427.04	173.10
6.00	399.61	173.11
6.10	362.55	173.11
6.20	326.60	173.11
6.30	289.22	173.12
6.40	262.27	173.12
6.50	237.19	173.14
6.60	218.26	173.14
6.70	204.93	173.15
6.80	192.40	173.15
6.90	182.85	173.17
7.00	174.72	173.17
7.10	169.24	173.18
7.20	165.83	173.18
7.30	164.83	173.20
7.40	165.87	173.20
7.50	170.31	173.21
7.60	175.67	173.21
7.70	185.60	173.22
7.80	195.66	173.22
7.90	210.16	173.24
8.00	226.89	173.24
8.10	242.54	173.26
8.20	264.27	173.26
8.30	284.58	173.27
8.40	312.25	173.27
8.50	335.91	173.28
8.60	367.28	173.28
8.70	400.35	173.30
8.80	431.25	173.30
8.90	470.67	173.31
9.00	505.41	173.31
9.10	552.10	173.33
9.20	593.31	173.33
9.30	644.93	173.34
9.40	690.11	173.34
9.50	748.56	173.35
9.60	811.16	173.35
9.70	867.46	173.37
9.80	940.03	173.37
9.90	1001.12	173.39
10.00	1079.26	173.39
10.10	1146.61	173.40
10.20	1224.40	173.40
10.30	1299.44	173.41
10.40	1348.56	173.41
10.50	1381.76	173.43
10.60	1370.36	173.43
10.70	1307.36	173.44
10.80	1176.38	173.44
10.90	1002.70	173.46
11.00	838.73	173.46
11.10	662.81	173.46
11.20	547.64	173.46
11.30	447.26	173.46
11.40	391.56	173.48
11.50	346.99	173.48
11.60	316.62	173.49
11.70	298.02	173.49
11.80	281.96	173.51
11.90	274.23	173.51
12.00	271.61	173.52
12.10	274.74	173.52
12.20	284.84	173.53
12.30	297.99	173.53
12.40	317.54	173.54
12.50	342.30	173.54
12.60	365.92	173.55
12.70	400.08	173.55
12.80	431.50	173.57
12.90	472.20	173.57
13.00	515.59	173.58
13.10	562.31	173.58
13.20	604.25	173.59
13.30	658.94	173.59
13.40	708.48	173.61
13.50	772.38	173.61
13.60	826.72	173.62
13.70	896.76	173.62
13.80	969.63	173.63
13.90	1036.96	173.63
14.00	1120.99	173.65
14.10	1195.24	173.65
14.20	1291.60	173.65
14.30	1375.12	173.65
14.40	1478.39	173.66
14.50	1584.80	173.66
14.60	1678.74	173.68
14.70	1797.22	173.68
14.80	1902.75	173.69
14.90	2032.65	173.69
15.00	2131.82	173.71
15.10	2243.62	173.71
15.20	2316.79	173.72
15.30	2359.66	173.72
15.40	2337.62	173.73
15.50	2227.79	173.73
15.60	2052.41	173.74
15.70	1783.38	173.74
15.80	1533.20	173.75
15.90	1244.52	173.75
16.00	1010.11	173.77
16.10	855.84	173.77
16.20	726.52	173.78
16.30	646.20	173.78
16.40	562.03	173.78
16.50	505.26	173.79
16.60	454.90	173.79
16.70	424.92	173.80
16.80	413.16	173.80
16.90	413.02	173.81
17.00	422.48	173.81
17.10	443.16	173.83
17.20	465.20	173.83
17.30	498.13	173.84
17.40	536.71	173.84
17.50	575.89	173.85
17.60	626.35	173.85
17.70	672.70	173.86
17.80	735.90	173.86
17.90	792.26	173.88
18.00	863.60	173.88
18.10	924.26	173.88
18.20	1002.26	173.88
18.30	1088.21	173.90
18.40	1164.96	173.90
18.50	1264.42	173.91
18.60	1347.55	173.91
18.70	1457.02	173.92
18.80	1553.99	173.92
18.90	1669.80	173.94
19.00	1795.71	173.94
19.10	1904.72	173.94
19.20	2044.88	173.94
19.30	2172.90	173.96
19.40	2327.06	173.96
19.50	2459.08	173.97
19.60	2619.70	173.97
19.70	2787.95	173.98
19.80	2943.47	173.98
19.90	3070.83	173.99
20.00	3202.32	173.99
20.10	3272.04	174.00
20.20	3286.69	174.00
20.30	3211.35	174.01
20.40	3076.20	174.01
20.50	2828.12	174.02
20.60	2566.95	174.02
20.70	2237.85	174.03
20.80	1990.88	174.03
20.90	1730.71	174.04
21.00	1539.67	174.04
21.10	1353.84	174.04
21.20	1176.29	174.05
21.30	1041.14	174.05
21.40	892.40	174.06
21.50	798.72	174.06
21.60	726.76	174.07
21.70	692.09	174.07
21.80	671.84	174.09
21.90	666.28	174.09
22.00	671.42	174.09
22.10	689.16	174.09
22.20	721.36	174.11
22.30	757.08	174.11
22.40	810.57	174.12
22.50	871.41	174.12
22.60	931.77	174.12
22.70	1007.90	174.12
22.80	1077.59	174.14
22.90	1172.39	174.14
23.00	1256.31	174.14
23.10	1362.42	174.14
23.20	1472.88	174.15
23.30	1574.40	174.15
23.40	1703.08	174.16
23.50	1819.88	174.16
23.60	1969.34	174.17
23.70	2095.96	174.17
23.80	2258.76	174.18
23.90	2403.98	174.18
24.00	2580.34	174.18
24.10	2773.45	174.18
24.20	2941.32	174.20
24.30	3161.76	174.20
24.40	3375.17	174.21
24.50	3566.53	174.21
24.60	3798.88	174.22
24.70	4017.77	174.22
24.80	4193.84	174.23
24.90	4358.18	174.23
25.00	4449.69	174.23
25.10	4479.74	174.23
25.20	4429.89	174.24
25.30	4284.38	174.24
25.40	4069.89	174.24
25.50	3853.91	174.24
25.60	3564.88	174.24
25.70	3323.37	174.26
25.80	3035.54	174.26
25.90	2808.18	174.26
26.00	2520.65	174.26
26.10	2242.02	174.27
26.20	2012.43	174.27
26.30	1777.00	174.28
26.40	1621.24	174.28
26.50	1470.99	174.28
26.60	1375.30	174.28
26.70	1285.60	174.30
26.80	1228.76	174.30
26.90	1181.72	174.30
27.00	1160.87	174.30
27.10	1163.79	174.31
27.20	1189.42	174.31
27.30	1221.68	174.32
27.40	1275.28	174.32
27.50	1332.43	174.33
27.60	1408.44	174.33
27.70	1501.21	174.33
27.80	1586.59	174.33
27.90	1707.40	174.34
28.00	1815.22	174.34
28.10	1951.73	174.34
28.20	2071.68	174.34
28.30	2224.22	174.36
28.40	2393.92	174.36
28.50	2546.71	174.36
28.60	2737.90	174.36
28.70	2911.18	174.37
28.80	3123.79	174.37
28.90	3317.03	174.38
29.00	3569.19	174.38
29.10	3774.88	174.39
29.20	4034.18	174.39
29.30	4264.43	174.40
29.40	4546.32	174.40
29.50	4771.67	174.40
29.60	5032.39	174.40
29.70	5240.17	174.41
29.80	5441.03	174.41
29.90	5590.65	174.41
30.00	5665.54	174.41
