Frank-Hertz Experiment					
					
Vr(V)= 1.5					
Cathode Heater Current (mA) = 0					
		 			
Va(V)_1	Ia(E-12 A)_1	T(c)_1	Va(V)_2	Ia(E-12 A)_2	T(c)_2
0.00	0.02	164.11	0.00	1.16	165.51
0.10	0.12	164.12			
0.20	0.10	164.12			
0.30	0.11	164.14			
0.40	0.06	164.14			
0.50	0.01	164.15			
0.60	0.36	164.15			
0.70	0.02	164.16			
0.80	0.16	164.16			
0.90	0.05	164.18			
1.00	0.10	164.18			
1.10	0.03	164.19			
1.20	0.03	164.19			
1.30	0.01	164.20			
1.40	0.03	164.20			
1.50	0.03	164.21			
1.60	0.13	164.21			
1.70	0.05	164.22			
1.80	0.09	164.22			
1.90	0.09	164.23			
2.00	0.03	164.23			
2.10	0.12	164.24			
2.20	0.05	164.24			
2.30	0.39	164.24			
2.40	0.57	164.26			
2.50	0.99	164.26			
2.60	2.18	164.27			
2.70	3.04	164.27			
2.80	4.85	164.28			
2.90	7.14	164.28			
3.00	9.41	164.30			
3.10	12.62	164.30			
3.20	15.81	164.31			
3.30	20.67	164.31			
3.40	25.17	164.32			
3.50	31.75	164.32			
3.60	38.23	164.34			
3.70	46.93	164.34			
3.80	57.03	164.35			
3.90	69.35	164.35			
4.00	81.03	164.35			
4.10	97.10	164.35			
4.20	112.09	164.37			
4.30	132.37	164.37			
4.40	154.82	164.38			
4.50	175.87	164.38			
4.60	204.64	164.39			
4.70	231.78	164.39			
4.80	268.72	164.40			
4.90	301.59	164.40			
5.00	345.20	164.41			
5.10	391.83	164.41			
5.20	435.50	164.43			
5.30	492.39	164.43			
5.40	541.18	164.44			
5.50	604.58	164.44			
5.60	654.50	164.45			
5.70	703.41	164.45			
5.80	726.02	164.46			
5.90	716.62	164.46			
6.00	666.20	164.48			
6.10	586.09	164.48			
6.20	502.92	164.49			
6.30	413.74	164.49			
6.40	352.04	164.50			
6.50	295.78	164.50			
6.60	252.66	164.51			
6.70	221.82	164.51			
6.80	191.08	164.52			
6.90	167.47	164.52			
7.00	145.43	164.53			
7.10	129.32	164.53			
7.20	113.18	164.53			
7.30	101.13	164.55			
7.40	93.69	164.55			
7.50	90.41	164.56			
7.60	91.76	164.56			
7.70	99.68	164.57			
7.80	109.50	164.57			
7.90	125.00	164.58			
8.00	143.73	164.58			
8.10	163.29	164.59			
8.20	192.93	164.59			
8.30	223.06	164.61			
8.40	267.51	164.61			
8.50	307.43	164.62			
8.60	363.63	164.62			
8.70	425.35	164.62			
8.80	485.36	164.62			
8.90	563.46	164.64			
9.00	634.52	164.64			
9.10	733.07	164.65			
9.20	820.75	164.65			
9.30	934.18	164.66			
9.40	1034.67	164.66			
9.50	1167.43	164.67			
9.60	1311.12	164.67			
9.70	1442.22	164.68			
9.80	1613.80	164.68			
9.90	1759.81	164.69			
10.00	1950.56	164.69			
10.10	2118.05	164.70			
10.20	2321.54	164.70			
10.30	2533.41	164.71			
10.40	2699.23	164.71			
10.50	2874.50	164.73			
10.60	2974.30	164.73			
10.70	2992.07	164.74			
10.80	2875.40	164.74			
10.90	2616.72	164.75			
11.00	2292.96	164.75			
11.10	1858.00	164.76			
11.20	1512.67	164.76			
11.30	1159.88	164.77			
11.40	937.94	164.77			
11.50	740.31	164.78			
11.60	589.55	164.78			
11.70	482.26	164.79			
11.80	374.74	164.79			
11.90	305.98	164.79			
12.00	245.81	164.80			
12.10	210.48	164.80			
12.20	182.29	164.81			
12.30	170.09	164.81			
12.40	170.50	164.82			
12.50	186.08	164.82			
12.60	208.75	164.83			
12.70	247.61	164.83			
12.80	286.69	164.83			
12.90	340.96	164.83			
13.00	405.28	164.85			
13.10	482.37	164.85			
13.20	559.00	164.85			
13.30	664.96	164.85			
13.40	766.21	164.86			
13.50	901.48	164.86			
13.60	1021.01	164.88			
13.70	1180.43	164.88			
13.80	1349.40	164.89			
13.90	1508.98	164.89			
14.00	1712.80	164.89			
14.10	1897.75	164.89			
14.20	2140.45	164.90			
14.30	2356.53	164.90			
14.40	2624.25	164.91			
14.50	2903.22	164.91			
14.60	3152.83	164.92			
14.70	3471.93	164.92			
14.80	3761.09	164.93			
14.90	4127.34	164.93			
15.00	4426.21	164.94			
15.10	4794.47	164.94			
15.20	5096.23	164.95			
15.30	5429.18	164.95			
15.40	5619.26	164.96			
15.50	5724.49	164.96			
15.60	5659.62	164.97			
15.70	5381.03	164.97			
15.80	4994.60	164.98			
15.90	4393.80	164.98			
16.00	3751.16	164.98			
16.10	3215.96	164.98			
16.20	2672.74	164.99			
16.30	2293.59	164.99			
16.40	1868.20	165.00			
16.50	1552.71	165.00			
16.60	1212.64	165.02			
16.70	937.01	165.02			
16.80	754.44	165.02			
16.90	593.78	165.03			
17.00	499.08	165.03			
17.10	418.45	165.03			
17.20	378.30	165.03			
17.30	358.37	165.04			
17.40	366.76	165.04			
17.50	392.20	165.05			
17.60	438.61	165.05			
17.70	489.14	165.05			
17.80	569.44	165.05			
17.90	652.63	165.07			
18.00	772.13	165.07			
18.10	885.37	165.07			
18.20	1039.14	165.07			
18.30	1215.49	165.09			
18.40	1379.55	165.09			
18.50	1600.88	165.09			
18.60	1794.66	165.09			
18.70	2056.29	165.10			
18.80	2292.87	165.10			
18.90	2583.24	165.12			
19.00	2905.02	165.12			
19.10	3187.58	165.12			
19.20	3555.44	165.12			
19.30	3898.33	165.13			
19.40	4312.88	165.13			
19.50	4673.33	165.14			
19.60	5120.62	165.14			
19.70	5604.78	165.15			
19.80	6078.95	165.15			
19.90	6498.82	165.16			
20.00	7021.04	165.16			
20.10	7426.14	165.17			
20.20	7835.70	165.17			
20.30	8120.42	165.18			
20.40	8236.64	165.18			
20.50	8191.42	165.19			
20.60	7978.85	165.19			
20.70	7529.98	165.20			
20.80	7069.23	165.20			
20.90	6445.52	165.20			
21.00	5893.32	165.20			
21.10	5293.46	165.21			
21.20	4679.96	165.21			
21.30	4169.63	165.22			
21.40	3520.05	165.22			
21.50	3002.21	165.22			
21.60	2471.28	165.24			
21.70	2105.50	165.24			
21.80	1760.93	165.24			
21.90	1481.41	165.24			
22.00	1284.57	165.25			
22.10	1100.71	165.25			
22.20	963.76	165.26			
22.30	898.12	165.26			
22.40	862.11	165.27			
22.50	864.25	165.27			
22.60	889.86	165.28			
22.70	948.21	165.28			
22.80	1023.47	165.30			
22.90	1151.05	165.30			
23.00	1282.47	165.31			
23.10	1464.28	165.31			
23.20	1664.47	165.31			
23.30	1859.40	165.31			
23.40	2120.55	165.33			
23.50	2370.73	165.33			
23.60	2705.38	165.33			
23.70	2996.24	165.33			
23.80	3378.67	165.35			
23.90	3728.16	165.35			
24.00	4159.65	165.36			
24.10	4639.83	165.36			
24.20	5061.90	165.37			
24.30	5626.34	165.37			
24.40	6177.12	165.38			
24.50	6678.97	165.38			
24.60	7317.14	165.39			
24.70	7959.20	165.39			
24.80	8534.67	165.40			
24.90	9198.48	165.40			
25.00	9728.43	165.41			
25.10	10284.77	165.41			
25.20	10673.40	165.42			
25.30	10975.79	165.42			
